# 180 angles,  1 tensor ranks for 0=projectile
@subtitle   "Simple  11Be + 197Au Coulex of 1/2- at the barrier"                            
@legend ON
@legend x1 0.2
@legend y1 0.8
@g0 type LOGY
@yaxis ticklabel format power
@xaxis label "Scattering angle (degrees)"
@yaxis label "Cross section (mb/sr)"
@legend string   0 "Partition=  1 Excit=  1 near/far= 1"
#legend string   0 "Lab energy =   42.0000"
@s0 linestyle   1
#  Theta       sigma       iT11        T20         T21         T22         Kyy for projectile
   1.000      0.9998    
   2.000      0.9998    
   3.000       1.001    
   4.000      0.9999    
   5.000       1.000    
   6.000      0.9999    
   7.000      0.9996    
   8.000      0.9993    
   9.000      0.9989    
   10.00      0.9982    
   11.00      0.9975    
   12.00      0.9967    
   13.00      0.9957    
   14.00      0.9946    
   15.00      0.9934    
   16.00      0.9922    
   17.00      0.9908    
   18.00      0.9893    
   19.00      0.9877    
   20.00      0.9860    
   21.00      0.9843    
   22.00      0.9824    
   23.00      0.9805    
   24.00      0.9784    
   25.00      0.9764    
   26.00      0.9742    
   27.00      0.9720    
   28.00      0.9697    
   29.00      0.9673    
   30.00      0.9649    
   31.00      0.9624    
   32.00      0.9598    
   33.00      0.9572    
   34.00      0.9546    
   35.00      0.9518    
   36.00      0.9491    
   37.00      0.9462    
   38.00      0.9434    
   39.00      0.9405    
   40.00      0.9375    
   41.00      0.9345    
   42.00      0.9314    
   43.00      0.9284    
   44.00      0.9252    
   45.00      0.9221    
   46.00      0.9189    
   47.00      0.9156    
   48.00      0.9124    
   49.00      0.9091    
   50.00      0.9057    
   51.00      0.9024    
   52.00      0.8990    
   53.00      0.8956    
   54.00      0.8922    
   55.00      0.8887    
   56.00      0.8852    
   57.00      0.8817    
   58.00      0.8782    
   59.00      0.8747    
   60.00      0.8711    
   61.00      0.8676    
   62.00      0.8640    
   63.00      0.8604    
   64.00      0.8568    
   65.00      0.8532    
   66.00      0.8496    
   67.00      0.8460    
   68.00      0.8423    
   69.00      0.8387    
   70.00      0.8351    
   71.00      0.8315    
   72.00      0.8279    
   73.00      0.8243    
   74.00      0.8207    
   75.00      0.8171    
   76.00      0.8136    
   77.00      0.8101    
   78.00      0.8066    
   79.00      0.8031    
   80.00      0.7997    
   81.00      0.7964    
   82.00      0.7931    
   83.00      0.7898    
   84.00      0.7866    
   85.00      0.7834    
   86.00      0.7803    
   87.00      0.7773    
   88.00      0.7744    
   89.00      0.7715    
   90.00      0.7688    
   91.00      0.7661    
   92.00      0.7636    
   93.00      0.7610    
   94.00      0.7587    
   95.00      0.7564    
   96.00      0.7543    
   97.00      0.7522    
   98.00      0.7502    
   99.00      0.7485    
   100.0      0.7468    
   101.0      0.7452    
   102.0      0.7438    
   103.0      0.7424    
   104.0      0.7413    
   105.0      0.7402    
   106.0      0.7393    
   107.0      0.7385    
   108.0      0.7379    
   109.0      0.7373    
   110.0      0.7369    
   111.0      0.7366    
   112.0      0.7365    
   113.0      0.7365    
   114.0      0.7366    
   115.0      0.7369    
   116.0      0.7372    
   117.0      0.7377    
   118.0      0.7384    
   119.0      0.7391    
   120.0      0.7399    
   121.0      0.7409    
   122.0      0.7419    
   123.0      0.7430    
   124.0      0.7444    
   125.0      0.7457    
   126.0      0.7472    
   127.0      0.7487    
   128.0      0.7503    
   129.0      0.7521    
   130.0      0.7539    
   131.0      0.7557    
   132.0      0.7576    
   133.0      0.7597    
   134.0      0.7617    
   135.0      0.7637    
   136.0      0.7659    
   137.0      0.7681    
   138.0      0.7703    
   139.0      0.7725    
   140.0      0.7749    
   141.0      0.7771    
   142.0      0.7795    
   143.0      0.7818    
   144.0      0.7841    
   145.0      0.7865    
   146.0      0.7888    
   147.0      0.7912    
   148.0      0.7935    
   149.0      0.7957    
   150.0      0.7980    
   151.0      0.8003    
   152.0      0.8026    
   153.0      0.8046    
   154.0      0.8069    
   155.0      0.8088    
   156.0      0.8109    
   157.0      0.8129    
   158.0      0.8149    
   159.0      0.8167    
   160.0      0.8185    
   161.0      0.8203    
   162.0      0.8219    
   163.0      0.8236    
   164.0      0.8252    
   165.0      0.8266    
   166.0      0.8279    
   167.0      0.8291    
   168.0      0.8304    
   169.0      0.8315    
   170.0      0.8323    
   171.0      0.8335    
   172.0      0.8343    
   173.0      0.8350    
   174.0      0.8356    
   175.0      0.8363    
   176.0      0.8366    
   177.0      0.8369    
   178.0      0.8372    
   179.0      0.8381    
   180.0      0.8362    
 END
@legend string   1 "Partition=  1 Excit=  2 near/far= 1"
#legend string   0 "Lab energy =   42.0000"
@s1 linestyle   2
#  Theta       sigma       iT11        T20         T21         T22         Kyy for projectile
   1.000       83.60    
   2.000       547.6    
   3.000       703.3    
   4.000       505.6    
   5.000       1258.    
   6.000       1896.    
   7.000       2292.    
   8.000       2476.    
   9.000       2516.    
   10.00       2468.    
   11.00       2366.    
   12.00       2236.    
   13.00       2095.    
   14.00       1952.    
   15.00       1813.    
   16.00       1682.    
   17.00       1558.    
   18.00       1444.    
   19.00       1339.    
   20.00       1242.    
   21.00       1154.    
   22.00       1074.    
   23.00       1000.    
   24.00       933.6    
   25.00       872.4    
   26.00       816.3    
   27.00       764.7    
   28.00       717.9    
   29.00       675.2    
   30.00       635.3    
   31.00       598.6    
   32.00       565.1    
   33.00       534.1    
   34.00       505.2    
   35.00       478.7    
   36.00       454.2    
   37.00       431.2    
   38.00       409.8    
   39.00       390.2    
   40.00       371.7    
   41.00       354.3    
   42.00       338.4    
   43.00       323.3    
   44.00       309.1    
   45.00       295.9    
   46.00       283.5    
   47.00       271.8    
   48.00       260.9    
   49.00       250.5    
   50.00       240.7    
   51.00       231.6    
   52.00       222.8    
   53.00       214.7    
   54.00       206.9    
   55.00       199.5    
   56.00       192.6    
   57.00       186.0    
   58.00       179.7    
   59.00       173.8    
   60.00       168.1    
   61.00       162.7    
   62.00       157.6    
   63.00       152.7    
   64.00       148.0    
   65.00       143.6    
   66.00       139.3    
   67.00       135.3    
   68.00       131.4    
   69.00       127.7    
   70.00       124.1    
   71.00       120.7    
   72.00       117.4    
   73.00       114.3    
   74.00       111.3    
   75.00       108.4    
   76.00       105.6    
   77.00       102.9    
   78.00       100.3    
   79.00       97.85    
   80.00       95.45    
   81.00       93.13    
   82.00       90.88    
   83.00       88.72    
   84.00       86.62    
   85.00       84.60    
   86.00       82.63    
   87.00       80.73    
   88.00       78.88    
   89.00       77.10    
   90.00       75.36    
   91.00       73.67    
   92.00       72.04    
   93.00       70.45    
   94.00       68.89    
   95.00       67.39    
   96.00       65.92    
   97.00       64.49    
   98.00       63.09    
   99.00       61.75    
   100.0       60.42    
   101.0       59.13    
   102.0       57.87    
   103.0       56.65    
   104.0       55.45    
   105.0       54.28    
   106.0       53.14    
   107.0       52.03    
   108.0       50.94    
   109.0       49.87    
   110.0       48.84    
   111.0       47.83    
   112.0       46.83    
   113.0       45.87    
   114.0       44.93    
   115.0       44.00    
   116.0       43.11    
   117.0       42.23    
   118.0       41.37    
   119.0       40.53    
   120.0       39.71    
   121.0       38.91    
   122.0       38.14    
   123.0       37.38    
   124.0       36.64    
   125.0       35.92    
   126.0       35.21    
   127.0       34.53    
   128.0       33.86    
   129.0       33.21    
   130.0       32.58    
   131.0       31.96    
   132.0       31.37    
   133.0       30.78    
   134.0       30.22    
   135.0       29.66    
   136.0       29.14    
   137.0       28.63    
   138.0       28.11    
   139.0       27.63    
   140.0       27.16    
   141.0       26.71    
   142.0       26.27    
   143.0       25.84    
   144.0       25.43    
   145.0       25.02    
   146.0       24.64    
   147.0       24.27    
   148.0       23.92    
   149.0       23.57    
   150.0       23.24    
   151.0       22.92    
   152.0       22.61    
   153.0       22.33    
   154.0       22.05    
   155.0       21.78    
   156.0       21.52    
   157.0       21.27    
   158.0       21.05    
   159.0       20.84    
   160.0       20.62    
   161.0       20.40    
   162.0       20.24    
   163.0       20.06    
   164.0       19.89    
   165.0       19.75    
   166.0       19.58    
   167.0       19.48    
   168.0       19.33    
   169.0       19.23    
   170.0       19.13    
   171.0       19.02    
   172.0       18.95    
   173.0       18.89    
   174.0       18.81    
   175.0       18.75    
   176.0       18.71    
   177.0       18.68    
   178.0       18.67    
   179.0       18.64    
   180.0       18.70    
 END
